#lambda/nm	DC	C1
208.295	470.8	471.2
208.67	432.2	436.4
209.045	395.8	398
209.419	402.6	401.8
209.794	576.6	579.2
210.169	554.4	570
210.544	701.8	695.6
210.919	610	614
211.295	592	602.4
211.67	610.4	604.8
212.045	602	603.4
212.421	611.8	609.6
212.796	638.8	642.4
213.172	598.6	604.6
213.547	604.8	616.2
213.923	602.4	607.2
214.299	606.8	610
214.675	623	611.8
215.051	606.8	607.6
215.427	616	624
215.803	635	633.4
216.179	624.2	627.4
216.555	615.4	621.6
216.932	630.2	635.6
217.308	629.6	640.4
217.684	629.6	629
218.061	630.8	635.4
218.438	640.4	634.2
218.814	637.6	632
219.191	644.4	650.8
219.568	639.8	630.4
219.945	640.4	637.6
220.322	647	656.6
220.699	645.6	651.8
221.076	661.8	653.2
221.453	654.4	658.2
221.83	646.4	645.6
222.208	650.2	654.4
222.585	646	643
222.962	661	657.2
223.34	662.6	662.8
223.717	651.4	664.4
224.095	658.2	662.6
224.473	664.6	664.8
224.851	658.4	662.8
225.229	654.8	659.2
225.607	688.8	670.8
225.985	658	661.2
226.363	673.6	677.2
226.741	671.6	678
227.119	674.6	675.8
227.497	689	695
227.876	666	665.8
228.254	685.8	686
228.633	692.4	681.8
229.011	677.2	697.4
229.39	692.8	691.2
229.769	708	698.2
230.148	699.6	704.4
230.527	714.8	716
230.905	704.6	696.8
231.284	710	711
231.664	696.6	703.4
232.043	726.8	718
232.422	724	717.4
232.801	708.6	714.4
233.181	722.8	724.8
233.56	721.2	725.2
233.94	722.8	733.2
234.319	711	724.4
234.699	733.8	734.8
235.079	769.6	783
235.458	767.4	784.8
235.838	770.2	768.2
236.218	738.2	742.8
236.598	752	757.2
236.978	753.2	753.2
237.358	758.8	766.6
237.738	766	754.2
238.119	768.8	772.2
238.499	763.8	767.8
238.88	775.4	776
239.26	794.8	809.6
239.641	771.6	777.2
240.021	782.2	782
240.402	798.4	792.8
240.783	791.6	792.6
241.163	800	797.6
241.544	802	801.4
241.925	803.4	808
242.306	819.4	820.2
242.687	802.2	800.2
243.069	801.6	794.6
243.45	807	801.6
243.831	791.6	786.2
244.212	784.2	778.6
244.594	830.4	823.4
244.975	788.8	795
245.357	788.4	774.4
245.739	768.4	754.6
246.12	764	762.4
246.502	769.4	767.4
246.884	739.2	737.2
247.266	737.6	733.8
247.648	736.4	741
248.03	753.6	751
248.412	729.4	724.2
248.794	725.4	709.8
249.176	713	699.4
249.559	708.4	722
249.941	697.8	682.8
250.323	683.4	683.8
250.706	680	673.2
251.089	686	675.6
251.471	677.6	673.6
251.854	676.8	669.8
252.237	669.2	665.2
252.62	676	667
253.002	655	652.6
253.385	647.8	646.4
253.769	658	658
254.152	635.4	642.4
254.535	649.6	638
254.918	626.4	628.6
255.301	630.6	633.6
255.685	623	633.2
256.068	612.6	619.2
256.452	642.4	648.8
256.835	630.8	623.8
257.219	624.4	620.4
257.603	627.6	627.8
257.986	607	612.8
258.37	618.6	623.2
258.754	606.8	616
259.138	613.6	625.2
259.522	615.8	628.2
259.906	611.6	610.8
260.29	615	612.4
260.675	608.8	614.2
261.059	603.6	612
261.443	602.8	607.2
261.828	618.8	615.4
262.212	621.2	612.8
262.597	601	603.4
262.981	614.2	611.8
263.366	614.6	620.6
263.751	619.8	619.2
264.136	600.8	602.6
264.521	607.2	612.4
264.906	607	609
265.291	612	622.6
265.676	607	603.6
266.061	624.2	624.2
266.446	633.2	627.6
266.831	616.4	618.8
267.217	626.2	631
267.602	624.4	614.6
267.987	611	614
268.373	608.2	605.2
268.759	627.4	619.2
269.144	615.6	616
269.53	608	601.6
269.916	610.6	608
270.302	620.8	611.2
270.688	613.4	618
271.074	606	616.8
271.46	620.4	627
271.846	633	633.4
272.232	610.4	608.6
272.618	608	606
273.004	613.8	605
273.391	628.2	621.8
273.777	616.6	622.8
274.164	618.8	614.6
274.55	625.4	620.2
274.937	610.2	614.6
275.324	604	607
275.71	617.8	622.6
276.097	620.6	612.6
276.484	611.8	608.8
276.871	620.6	609.6
277.258	622	619.6
277.645	599.6	598.8
278.032	613.2	605.8
278.419	598.8	609.2
278.807	616	620.2
279.194	603	611
279.581	605	599.4
279.969	616.6	623
280.356	609.2	618
280.744	617.2	615
281.131	639.6	636
281.519	626.4	621.4
281.907	621.4	614
282.295	603.8	609.2
282.682	616.8	626.6
283.07	607.8	615.2
283.458	618.2	614.6
283.846	622.4	620
284.235	617.2	615.8
284.623	629.2	625.6
285.011	606.4	598.6
285.399	610.4	610.4
285.788	611	612.6
286.176	609.8	601.4
286.565	629.4	625
286.953	610.2	605.4
287.342	616.6	606.2
287.731	606.8	610.8
288.119	611.8	598.2
288.508	612.4	601
288.897	610.8	618.4
289.286	604.8	603.4
289.675	615	612.6
290.064	617.4	613.8
290.453	609.2	603
290.821	605.6	613.6
291.21	627.4	622.4
291.599	610	604
291.989	620.6	615.8
292.378	617.4	621.8
292.768	625	634.4
293.157	618.2	617
293.547	625.8	616.6
293.936	623.6	606.8
294.326	608.6	597.2
294.716	615	618.4
295.106	605.4	619.8
295.496	614.6	620.2
295.886	629.6	611.4
296.276	614.4	618
296.666	616.6	608
297.056	606.2	604.4
297.446	602.2	604.6
297.836	626	625.6
298.227	608	617.4
298.617	615.6	618.8
299.008	615.6	627.6
299.398	614.4	612.2
299.789	602.6	612.4
300.179	623.8	616.8
300.57	623.4	629.8
300.961	607.6	611.6
301.352	604.2	610.6
301.742	621.4	617.4
302.133	622	618
302.524	615	613.4
302.915	611.4	610.6
303.307	609.8	606.2
303.698	629.4	628.6
304.089	612.4	617
304.48	619.6	618
304.872	616.4	628.4
305.263	616.2	614.6
305.655	606	606.2
306.046	622.2	625.4
306.438	623.4	619.8
306.829	610.4	612.4
307.221	623.8	631.8
307.613	623.2	624.4
308.005	631	619.8
308.397	636	629.8
308.789	635.6	639
309.181	627.4	633.8
309.573	633.6	627.2
309.965	622.8	622.8
310.357	615.4	611.8
310.749	625.8	625.8
311.142	613.4	611
311.534	610.8	606.6
311.926	624.2	622.4
312.319	608.8	612.8
312.711	612.6	605
313.104	619.8	628.6
313.497	623.4	612.4
313.889	652.2	649.4
314.282	625.4	629.4
314.675	635.6	641.4
315.068	623.6	612.8
315.461	622.4	618.4
315.854	634	647
316.247	616.6	620.4
316.64	616.4	610.2
317.033	612.8	614.4
317.405	618.6	621.8
317.798	619.8	615
318.192	615.6	611.2
318.585	596.8	611.6
318.979	626.4	617
319.372	601	612.4
319.766	611	613.8
320.16	627.2	626.8
320.553	629.4	626
320.947	636.2	636.8
321.341	613.6	615.8
321.735	612.6	614.4
322.129	610.8	603.4
322.523	633.6	642.6
322.917	611.4	605.8
323.311	622.4	628.6
323.705	623.2	614.4
324.099	618.4	607.4
324.494	630	635.8
324.888	624.4	627.6
325.282	616.6	610.4
325.677	633.2	627
326.071	625.8	618.4
326.466	623.6	631.4
326.861	623.4	619
327.255	630.8	623.8
327.65	618.6	629
328.045	633.2	633
328.44	614.2	619.2
328.835	608.4	610.2
329.23	608.6	619.8
329.625	641.8	638.4
330.02	611	612.4
330.415	638.8	624.8
330.81	624.8	614.8
331.206	610.6	620.2
331.601	612	621
331.996	629.6	627
332.37	633	635
332.766	613.8	609.2
333.161	642.6	633.8
333.557	607.2	618.2
333.953	609	611.4
334.348	1017.8	1014
334.744	616.8	612
335.14	610	613.2
335.536	612.6	611.4
335.932	627.2	627.8
336.328	610.8	605.2
336.724	624.8	621.8
337.12	618.4	617.6
337.516	618.2	623.2
337.913	620.2	614.4
338.309	623.8	635.4
338.705	612.4	615
339.102	612	635.2
339.498	615.6	611.8
339.895	626.4	634.4
340.291	610.6	606
340.688	628.6	630.4
341.085	615.6	613.2
341.481	610.2	612.2
341.878	617	614.6
342.275	640.2	634.6
342.672	602.6	616.4
343.069	612.8	609.2
343.466	603	604.4
343.842	629.8	620.4
344.239	607.6	600.6
344.636	623.2	610.8
345.033	606.6	610
345.431	607.8	605.6
345.828	615.6	613.4
346.225	611.2	608.2
346.623	632.2	619.2
347.02	615.2	615.8
347.418	623.8	627.2
347.816	633	628
348.213	613.2	597.8
348.611	615	621.2
349.009	606.4	610.2
349.407	621.4	620.8
349.805	603.8	605.6
350.203	594.4	601
350.601	626	620.6
350.999	613.4	609.6
351.397	642.8	649.8
351.795	620.4	616
352.193	628.8	622.4
352.57	622.6	625.6
352.969	624.6	627.8
353.367	607.4	610.4
353.766	605	612.8
354.164	616.8	606.6
354.563	611	627.8
354.961	602.4	608.6
355.36	601.4	613.6
355.759	616.4	616.2
356.158	607.8	607.8
356.557	605.8	608.2
356.956	594	610.8
357.355	602.2	609.6
357.754	622.2	612.8
358.153	615.2	627.6
358.552	635	630.8
358.951	614	609.4
359.35	624.8	621.4
359.75	610.2	613.6
360.149	616.2	606.6
360.527	599.6	597.8
360.926	609.2	603.6
361.326	611.6	619.4
361.726	618.2	614.6
362.125	613.8	606.8
362.525	628.6	627.2
362.925	617	611.6
363.325	621.8	617.2
363.724	618.2	620.6
364.124	606.4	604.4
364.524	606	605.4
364.924	610.6	617.8
365.324	622.6	627.2
365.725	591.4	602.8
366.125	618.6	619.8
366.525	619.8	610.2
366.904	605.2	612
367.304	595.4	593.4
367.705	625.2	625.8
368.105	622.4	622.2
368.506	615.2	612.8
368.906	610.8	614.6
369.307	613.6	619
369.708	622.2	624.8
370.108	607.8	601
370.509	626.6	622
370.91	602.4	605.6
371.311	621.2	612.8
371.712	615.6	619.2
372.113	609.4	617.2
372.514	596.6	613.2
372.894	616.2	615
373.295	609.2	617.2
373.696	624.8	618
374.097	623.6	625.2
374.499	635.6	645
374.9	618.4	619.8
375.301	610.2	610.2
375.703	614.8	614.8
376.105	607.2	600
376.506	616.2	622.8
376.908	606.8	612
377.309	611.6	617.4
377.711	610.2	614.4
378.113	610	615.4
378.493	617.6	613.4
378.895	608.4	610.2
379.297	625.6	616
379.699	608.2	602.8
380.102	626.8	617.4
380.504	619.2	611.8
380.906	620.8	616
381.308	645.6	626.4
381.71	618	617.8
382.113	623.6	623.2
382.515	617.2	605.2
382.918	614.2	616
383.299	609.8	618
383.701	629.4	618.8
384.104	623.8	621.6
384.507	599.4	594.6
384.909	614.2	618.4
385.312	600	607.6
385.715	609.2	612
386.118	619.4	611.8
386.521	614.8	601.4
386.924	621.4	633.4
387.327	616.6	606.6
387.709	601	619.4
388.112	611.8	599.2
388.515	621.6	616.6
388.918	614.2	609.4
389.322	632.4	629.8
389.725	618.8	613
390.129	640.4	641.6
390.532	622.8	634.6
390.936	615	621.4
391.339	611.2	614.4
391.743	620.6	620.2
392.125	613.4	615.8
392.529	638.8	635.6
392.933	633.8	638.8
393.337	615.6	620
393.74	620.8	622.4
394.144	618.4	617.2
394.548	611.6	621.2
394.953	613.6	620.6
395.357	623.4	629.2
395.761	622	622.4
396.144	623.8	623.2
396.548	619.8	628.8
396.952	628.2	629
397.357	617.8	623
397.761	626.4	613.6
398.166	618.4	620.8
398.57	624.8	621.6
398.975	620.8	621.2
399.379	626.4	621.8
399.763	670.6	668
400.168	630.6	632.8
400.572	634	637.2
400.977	628.8	627.4
401.382	650.6	655.4
401.787	641.8	649.2
402.192	649.6	654
402.597	644	656
403.002	626.4	632.6
403.386	648.8	658.8
403.791	661.6	663.6
404.197	647	644.4
404.602	651.4	657.8
405.007	653	660
405.413	654.6	663.2
405.818	659.4	661.8
406.224	661.4	663.2
406.608	666.4	670.6
407.014	658.8	672.6
407.42	688.6	700.6
407.825	677.8	687.4
408.231	699.6	702.2
408.637	696.8	713.2
409.043	721	716.8
409.449	721	717.6
409.834	722.6	718
410.24	742.6	747.8
410.646	761	750.6
411.052	775.6	771.2
411.458	769.2	781
411.865	801.6	803.6
412.271	818	828.2
412.677	816.4	819.2
413.062	839.6	841.8
413.469	849.2	849.8
413.875	898.4	914.6
414.282	923.6	918.4
414.689	939.4	932.8
415.095	969.8	968.2
415.502	980.8	984.8
415.888	1006.4	1009.8
416.294	1025.4	1038.4
416.701	1118.4	1135
417.108	1115.8	1117.4
417.515	1160.4	1164.2
417.923	1196	1185.4
418.33	1261.6	1242.8
418.715	1272.8	1279.4
419.123	1321.6	1333.6
419.53	1378.8	1370.8
419.937	1426	1429.4
420.345	1490.4	1486.6
420.752	1539.2	1539
421.16	1620	1603
421.546	1645.8	1679.8
421.953	1733.6	1722.8
422.361	1788.4	1784.2
422.769	1860.2	1871
423.177	1941.4	1937.2
423.585	2048.8	2040.8
423.992	2145	2128.2
424.379	2204.8	2202.6
424.787	2302.2	2328
425.195	2405.6	2405
425.603	2495.8	2532.2
426.011	2626.2	2635.6
426.419	2763.6	2745.8
426.806	2842.8	2888.6
427.214	2989.2	2993.8
427.623	3147.2	3144.6
428.031	3296.6	3296.4
428.44	3450.6	3468.8
428.848	3606	3616.2
429.235	3804.4	3790.6
429.644	3967	3986.6
430.053	4154.2	4147
430.461	4402	4383.6
430.87	4580.8	4616
431.279	4782.8	4809.2
431.666	5003.8	5036
432.075	5260.8	5279
432.484	5518	5551.6
432.893	5726.6	5783.4
433.302	6050.8	6072
433.711	6325.8	6384.8
434.099	6575.8	6660.4
434.508	6894.2	6985.4
434.918	7184.8	7297.4
435.327	7569.8	7681
435.737	7951	7989.8
436.125	8242	8341
436.534	8617.4	8750
436.944	8991.6	9132.8
437.353	9418.2	9510.2
437.763	9863	9974.8
438.173	10244	10355.4
438.561	10681.2	10853.6
438.971	11114.2	11278.8
439.381	11629.6	11779.2
439.791	12131.6	12243.6
440.201	12598.2	12793.6
440.589	13151.2	13377.4
440.999	13697	13904.6
441.409	14317.4	14536.8
441.819	14881.6	15079.8
442.23	15607	15744.4
442.619	16189	16469.2
443.029	16914.6	17216.8
443.439	17716.4	17888.6
443.85	18494.4	18710.8
444.26	19287.6	19496.4
444.649	20180.4	20375.6
445.06	21144.4	21316.8
445.471	22043	22283.6
445.881	23049.6	23249.4
446.292	24115.2	24321
446.682	25189.8	25367.6
447.092	26223.6	26466.6
447.503	27395.6	27676.2
447.914	28569.8	28797.8
448.325	29746.4	30038.4
448.715	31000.4	31271.2
449.126	32211.8	32488
449.537	33426.8	33598.6
449.948	34581.8	34858.4
450.338	35705.8	35893.6
450.75	36879.2	37073.2
451.161	37812.6	38135.8
451.572	38772	39108.2
451.984	39714.6	39970.8
452.374	40463.2	40653
452.786	41102.4	41332.8
453.197	41660	41901.4
453.609	42019.8	42318.2
453.999	42274.4	42587.4
454.411	42442.4	42672.2
454.823	42386	42646.8
455.235	42238.8	42503.8
455.647	41952.2	42322.4
456.037	41586.6	41775.2
456.449	40974.6	41284.8
456.862	40379.8	40725.8
457.274	39557.4	39914.2
457.665	38821.6	39072.2
458.077	37934.6	38193
458.489	37040.4	37323.8
458.902	35972.6	36315.4
459.293	35016	35276.2
459.705	33987.6	34360.2
460.118	32994.4	33292.6
460.53	32064.6	32377.4
460.921	31105.8	31379.6
461.334	30253.4	30457.8
461.747	29312	29650.4
462.16	28578.4	28855.4
462.551	27782.8	28119.2
462.964	27009.2	27385
463.377	26423.4	26787
463.79	25882.6	26157.2
464.182	25258.8	25630.6
464.595	24840.2	25171.8
465.008	24337.2	24641.6
465.421	23821.8	24160.8
465.813	23559.8	23812.4
466.226	23135.4	23423.8
466.64	22777.2	23088
467.053	22487	22704.4
467.445	22067.6	22371.4
467.859	21662	22088
468.272	21455.2	21673.6
468.686	21001.2	21402.2
469.078	20660.4	21060.4
469.492	20315.4	20634.2
469.906	20007.4	20282.2
470.298	19618.8	19930.6
470.712	19245.2	19524.2
471.126	18869	19201.2
471.54	18452	18758.2
471.933	18050	18280
472.347	17652.8	17979.8
472.761	17251.2	17589.4
473.175	16794.4	17143
473.568	16456.4	16774.6
473.982	16058.4	16307.8
474.397	15716.2	15990.2
474.79	15323.2	15636.8
475.204	14975.4	15291.8
475.619	14601.6	14920
476.033	14359.8	14620.8
476.426	14013.2	14289
476.841	13800.8	14019.6
477.256	13566.6	13830.2
477.649	13254.2	13597.6
478.064	13073.8	13415.8
478.479	12872.6	13193
478.872	12750.6	13034
479.287	12624.8	12891.4
479.702	12532.8	12832
480.118	12426	12715.6
480.511	12346.8	12644.8
480.927	12320.8	12625.4
481.342	12238	12507.6
481.736	12214.8	12526.8
482.151	12194.6	12577.8
482.566	12256	12444.6
482.96	12201.4	12468
483.376	12245.8	12506
483.792	12299.4	12552.2
484.186	12329.6	12605.8
484.602	12380.2	12642.4
485.017	12407.4	12723.4
485.412	12470	12695.6
485.827	12608	12814.8
486.243	12664.8	12873.4
486.638	12744.8	13016
487.054	12760.2	13060.4
487.47	12890	13087
487.865	12907.8	13150
488.281	13047.8	13317.8
488.697	13143.2	13387.4
489.092	13260.4	13498.2
489.508	13407.4	13601
489.925	13481	13773
490.32	13637.8	13869
490.736	13777.8	14045.4
491.153	13943.4	14159.4
491.548	14117.2	14330.4
491.964	14240.4	14535.2
492.381	14396	14646.4
492.776	14635.8	14828.2
493.193	14800	15039.4
493.61	14996.4	15202.2
494.006	15235.8	15491.2
494.422	15401.2	15656.2
494.84	15664.2	15898.2
495.235	15927.4	16139.4
495.652	16133.2	16333.6
496.069	16392.4	16576.8
496.465	16631.6	16779.2
496.883	16839.2	17070.8
497.3	17212	17347.2
497.696	17355	17641.8
498.113	17677.4	17859.6
498.509	17970.6	18108.2
498.927	18194.8	18387.4
499.344	18420.6	18668.6
499.741	18685.8	18915.4
500.158	19012.8	19212.4
500.576	19237.2	19460
500.973	19603.8	19690.2
501.39	19803	20018.4
501.787	20088.4	20184.2
502.205	20363.8	20557.4
502.623	20571.6	20844.2
503.02	20921.4	21053.4
503.438	21158.8	21351.4
503.856	21421.8	21647
504.253	21629.4	21867.2
504.671	21977.2	22098.6
505.068	22127.8	22419.2
505.486	22457	22613.8
505.905	22740.6	22930.8
506.302	22996.8	23174.2
506.72	23225.8	23376.8
507.118	23524	23604
507.536	23732	23889
507.955	24049.2	24110
508.352	24183.8	24311.4
508.771	24440.4	24600.2
509.169	24725.4	24861.6
509.587	24940.4	25066.8
510.006	25116.4	25348
510.404	25375.2	25487
510.823	25653.4	25803.2
511.221	25919.2	26012.4
511.64	26093.2	26173.8
512.038	26279	26471.2
512.457	26500.8	26590.4
512.877	26732.6	26773
513.275	26947.6	27063.8
513.694	27167	27200.4
514.092	27280.2	27435.8
514.512	27595.2	27695
514.91	27764.8	27855.2
515.33	27875.2	28059
515.749	28187	28286.8
516.148	28324.4	28480
516.568	28533.8	28651.4
516.966	28789.2	28865.4
517.386	28916.4	29012.4
517.785	29104	29257.6
518.205	29351.6	29411.4
518.603	29552.8	29553
519.024	29732.6	29781.4
519.444	29817.8	29967
519.843	30037	30183.2
520.263	30156.6	30226.8
520.662	30342.2	30401.2
521.082	30527.6	30601.4
521.481	30654.4	30805.8
521.902	30840.2	31007.6
522.301	30986.6	31152.8
522.722	31186.4	31254.4
523.121	31363	31377.6
523.542	31459.6	31586
523.963	31627.2	31657
524.362	31809.4	31899.2
524.783	31799	31967.2
525.183	32027.8	32048
525.604	32143.2	32228
526.003	32275.2	32320
526.425	32381.8	32462.4
526.824	32473.6	32647.8
527.246	32634.6	32777.6
527.646	32821.6	32823.8
528.067	32888.2	32956.4
528.467	32972.8	33028.2
528.888	33093.8	33141.8
529.289	33317.8	33344.2
529.71	33443.4	33421
530.11	33505	33604
530.532	33682.4	33660
530.932	33762	33771.2
531.354	33940.6	33906.6
531.755	34069	34143.2
532.176	34143.8	34208
532.577	34270.2	34349.2
532.999	34392.4	34564.8
533.4	34591.4	34628.8
533.822	34758.6	34904.2
534.223	34901	34990
534.645	35042	35137.4
535.046	35085.4	35270.4
535.468	35386.6	35354
535.869	35511.2	35489.4
536.292	35620.4	35703.8
536.693	35919	35870
537.115	35954	35946.4
537.516	36094.8	36129.8
537.939	36311.6	36286
538.34	36392.2	36419.4
538.742	36575.6	36506.6
539.165	36638	36754.4
539.566	36880.6	36898
539.989	37014.6	37047.8
540.391	37237.8	37135.4
540.814	37318.2	37313
541.216	37522.6	37532.2
541.639	37538	37594
542.041	37773	37714.8
542.464	37910.6	37976.6
542.866	37953.2	38101.2
543.268	38173.8	38106.2
543.691	38274.6	38295.4
544.093	38389.2	38494.4
544.517	38469.6	38642.6
544.919	38614.6	38711.6
545.343	38850.8	38876.6
545.745	38938.4	38989.8
546.147	39086.2	39074
546.571	39121.2	39273.2
546.974	39275	39359.6
547.398	39486	39530.2
547.8	39603.2	39629.2
548.224	39748.8	39760.4
548.627	39893	39839.4
549.03	39997.8	40040
549.454	40193.2	40198.6
549.857	40241.8	40312.2
550.281	40327.4	40355
550.684	40514	40578.6
551.087	40555.8	40600.8
551.512	40705.2	40832.4
551.915	40926.2	40925.6
552.34	41061.2	41071.4
552.743	41131.6	41115.4
553.146	41310.8	41331.6
553.571	41355.8	41430.8
553.975	41594.8	41546.8
554.399	41663.8	41720.6
554.803	41825	41810
555.207	41872.6	41900.4
555.632	42052.4	42011.6
556.036	42235.2	42303.4
556.461	42335.2	42240.2
556.865	42457	42476.2
557.268	42581.4	42625
557.694	42767.8	42848.4
558.098	42937.8	42873.4
558.502	43053	43034.4
558.927	43111.8	43141.6
559.332	43283	43218.8
559.736	43546.4	43432.6
560.162	43488.6	43584
560.566	43741	43728.4
560.992	43852.2	43881.2
561.396	44061.2	44071.2
561.801	44179.8	44236.6
562.227	44287.6	44366.4
562.631	44484.2	44486.6
563.036	44572	44566.4
563.462	44643	44718.6
563.867	44976.2	44932.2
564.272	45103.2	45081.4
564.698	45266.8	45256.8
565.103	45339.6	45394.8
565.508	45641.4	45534.6
565.935	45825	45714.6
566.34	45907.8	45845.4
566.745	45983.4	45972.2
567.172	46237.4	46216.2
567.577	46330.2	46331
567.982	46534.8	46507
568.409	46554.8	46579.4
568.815	46691.6	46755.6
569.22	46904.4	46832.8
569.626	47072	47080.8
570.053	47144	47132.6
570.459	47349.8	47388.8
570.865	47512.8	47529.8
571.292	47577.6	47618.2
571.698	47811.4	47652.4
572.104	47863.2	47897
572.531	48006.4	48071.6
572.937	48164.4	48163.4
573.343	48226.4	48279.6
573.75	48358.6	48399.2
574.177	48548.4	48516.8
574.583	48685.6	48718.8
574.99	48799	48740
575.396	48889	48947
575.824	49102.8	49109.8
576.231	49239.8	49210
576.637	49287.2	49197
577.065	49536.2	49484.4
577.472	49569.6	49491.4
577.879	49664	49636.8
578.286	49741.6	49806.6
578.714	49918.4	49884.4
579.121	50047.8	49966.8
579.528	50198.4	50063.4
579.935	50228.8	50136.8
580.364	50309.6	50280.6
580.771	50357	50464
581.178	50429.4	50524.4
581.585	50568	50637.2
582.014	50717.8	50612.4
582.421	50821.8	50716.6
582.829	50843.8	50811.8
583.236	50912.4	50872
583.644	51024.2	50939.8
584.073	50991.6	50968.8
584.481	51058.2	51156.4
584.889	51082.2	51135.2
585.296	51277	51264.6
585.726	51324	51198
586.134	51403.6	51365.6
586.542	51405.4	51379
586.95	51501.6	51486.6
587.358	51540.2	51486.6
587.787	51651.6	51497.4
588.196	51551.2	51609.2
588.604	51692.4	51707
589.012	51713.4	51687.2
589.421	51729.8	51628
589.851	51829.6	51786.2
590.259	51712	51752.4
590.668	51804.2	51868.4
